Frequency (Hz)	Level (dB)
10.766602	-43.037239
21.533203	-9.828350
32.299805	-41.083004
43.066406	-29.713797
53.833008	-43.198654
64.599609	-38.733067
75.366211	-43.779655
86.132812	-41.868256
96.899414	-45.394295
107.666016	-35.371769
118.432617	-45.886185
129.199219	-34.925297
139.965820	-45.562424
150.732422	-38.480129
161.499023	-43.794044
172.265625	-36.132614
183.032227	-42.262005
193.798828	-35.595325
204.565430	-35.708221
215.332031	-27.777252
226.098633	-38.246635
236.865234	-36.354713
247.631836	-43.125217
258.398438	-38.913261
269.165039	-46.479530
279.931641	-44.515759
290.698242	-48.072727
301.464844	-44.716183
312.231445	-48.927734
322.998047	-46.401115
333.764648	-50.033604
344.531250	-46.952946
355.297852	-49.550156
366.064453	-46.332367
376.831055	-47.539696
387.597656	-43.606651
398.364258	-46.089283
409.130859	-41.694561
419.897461	-40.708611
430.664062	-39.747662
441.430664	-45.979233
452.197266	-47.433338
462.963867	-49.141380
473.730469	-49.672752
484.497070	-52.039646
495.263672	-52.436653
506.030273	-52.599995
516.796875	-53.000172
527.563477	-53.695103
538.330078	-53.219883
549.096680	-53.675331
559.863281	-53.706055
570.629883	-52.970989
581.396484	-51.407124
592.163086	-51.139801
602.929688	-49.980244
613.696289	-47.731682
624.462891	-46.432865
635.229492	-47.069843
645.996094	-47.809917
656.762695	-48.144863
667.529297	-48.535408
678.295898	-49.945915
689.062500	-50.414181
699.829102	-51.119091
710.595703	-51.932362
721.362305	-52.688698
732.128906	-52.973808
742.895508	-53.084812
753.662109	-52.856705
764.428711	-52.870918
775.195312	-52.704399
785.961914	-51.472824
796.728516	-50.756142
807.495117	-49.336510
818.261719	-48.345737
829.028320	-47.427086
839.794922	-46.095455
850.561523	-45.145344
861.328125	-44.716415
872.094727	-44.574203
882.861328	-45.205250
893.627930	-45.674267
904.394531	-46.418819
915.161133	-47.245831
925.927734	-48.303593
936.694336	-48.296368
947.460938	-48.682858
958.227539	-49.227730
968.994141	-50.325752
979.760742	-50.774784
990.527344	-51.534134
1001.293945	-51.374672
1012.060547	-51.164593
1022.827148	-50.716858
1033.593750	-50.474819
1044.360352	-49.647892
1055.126953	-48.713493
1065.893555	-47.642258
1076.660156	-45.996460
1087.426758	-44.278370
1098.193359	-42.325741
1108.959961	-42.042374
1119.726562	-43.353027
1130.493164	-45.046761
1141.259766	-46.245052
1152.026367	-47.689480
1162.792969	-48.822807
1173.559570	-49.096416
1184.326172	-49.674488
1195.092773	-49.925873
1205.859375	-49.562721
1216.625977	-49.106148
1227.392578	-48.551743
1238.159180	-47.812000
1248.925781	-46.676292
1259.692383	-45.568104
1270.458984	-44.017467
1281.225586	-42.014984
1291.992188	-40.253323
1302.758789	-38.237614
1313.525391	-39.099899
1324.291992	-40.768654
1335.058594	-43.049721
1345.825195	-44.524918
1356.591797	-45.496342
1367.358398	-46.414383
1378.125000	-47.176502
1388.891602	-47.590527
1399.658203	-47.345280
1410.424805	-47.326580
1421.191406	-47.287704
1431.958008	-47.035908
1442.724609	-46.138607
1453.491211	-44.926640
1464.257812	-44.302742
1475.024414	-43.629166
1485.791016	-41.816002
1496.557617	-40.587120
1507.324219	-40.245079
1518.090820	-40.073204
1528.857422	-40.358379
1539.624023	-41.891846
1550.390625	-43.037266
1561.157227	-43.709316
1571.923828	-44.401581
1582.690430	-45.056099
1593.457031	-45.988323
1604.223633	-45.950542
1614.990234	-46.500546
1625.756836	-46.444279
1636.523438	-46.050133
1647.290039	-45.949238
1658.056641	-45.712189
1668.823242	-44.901882
1679.589844	-44.645592
1690.356445	-43.919697
1701.123047	-43.888752
1711.889648	-43.344170
1722.656250	-42.633152
1733.422852	-43.074974
1744.189453	-42.915127
1754.956055	-43.231861
1765.722656	-43.062344
1776.489258	-43.466705
1787.255859	-43.675720
1798.022461	-44.586811
1808.789062	-44.795761
1819.555664	-45.248383
1830.322266	-45.724243
1841.088867	-45.545395
1851.855469	-45.936913
1862.622070	-45.446754
1873.388672	-45.603294
1884.155273	-45.878788
1894.921875	-45.129578
1905.688477	-44.981308
1916.455078	-44.652569
1927.221680	-44.256893
1937.988281	-43.583855
1948.754883	-43.393364
1959.521484	-42.966976
1970.288086	-42.697060
1981.054688	-42.507847
1991.821289	-42.489384
2002.587891	-42.743122
2013.354492	-43.014191
2024.121094	-43.105785
2034.887695	-43.599617
2045.654297	-44.420387
2056.420898	-44.732800
2067.187500	-44.983456
2077.954102	-44.830910
2088.720703	-45.417507
2099.487305	-45.382328
2110.253906	-44.988312
2121.020508	-45.169376
2131.787109	-44.695438
2142.553711	-44.433975
2153.320312	-43.886139
2164.086914	-42.786697
2174.853516	-41.946507
2185.620117	-41.152782
2196.386719	-40.633152
2207.153320	-39.955425
2217.919922	-40.066914
2228.686523	-40.378727
2239.453125	-41.179989
2250.219727	-42.056793
2260.986328	-42.949520
2271.752930	-44.051205
2282.519531	-44.231285
2293.286133	-44.783833
2304.052734	-45.002071
2314.819336	-45.349339
2325.585938	-45.433155
2336.352539	-45.390377
2347.119141	-44.806328
2357.885742	-44.385509
2368.652344	-43.570816
2379.418945	-42.522110
2390.185547	-41.528610
2400.952148	-40.348549
2411.718750	-38.735508
2422.485352	-37.861893
2433.251953	-38.008118
2444.018555	-39.382225
2454.785156	-40.492786
2465.551758	-41.534431
2476.318359	-42.573574
2487.084961	-43.385727
2497.851562	-44.228729
2508.618164	-45.149849
2519.384766	-44.930351
2530.151367	-45.398048
2540.917969	-45.233791
2551.684570	-44.974113
2562.451172	-44.545334
2573.217773	-44.639549
2583.984375	-43.445412
2594.750977	-42.317245
2605.517578	-40.862450
2616.284180	-39.806824
2627.050781	-37.763004
2637.817383	-36.417263
2648.583984	-36.660965
2659.350586	-38.200356
2670.117188	-39.899567
2680.883789	-41.777740
2691.650391	-42.895306
2702.416992	-43.530441
2713.183594	-44.092175
2723.950195	-44.963406
2734.716797	-45.211067
2745.483398	-45.350082
2756.250000	-45.594028
2767.016602	-44.934860
2777.783203	-44.288616
2788.549805	-43.669292
2799.316406	-43.196758
2810.083008	-41.792698
2820.849609	-40.477829
2831.616211	-38.504898
2842.382812	-37.206890
2853.149414	-36.199810
2863.916016	-36.691074
2874.682617	-37.953808
2885.449219	-39.600662
2896.215820	-40.686974
2906.982422	-42.026711
2917.749023	-42.903233
2928.515625	-43.745872
2939.282227	-44.546013
2950.048828	-44.818859
2960.815430	-44.648788
2971.582031	-44.786297
2982.348633	-44.449932
2993.115234	-43.775650
3003.881836	-43.263752
3014.648438	-42.324928
3025.415039	-40.632057
3036.181641	-39.910820
3046.948242	-38.143471
3057.714844	-36.400623
3068.481445	-34.947269
3079.248047	-35.406803
3090.014648	-37.267281
3100.781250	-38.904842
3111.547852	-40.152771
3122.314453	-41.238586
3133.081055	-42.157703
3143.847656	-42.968029
3154.614258	-43.743885
3165.380859	-43.663799
3176.147461	-43.680332
3186.914062	-43.772823
3197.680664	-43.426281
3208.447266	-43.089561
3219.213867	-42.538418
3229.980469	-41.571644
3240.747070	-40.457008
3251.513672	-39.294369
3262.280273	-37.298779
3273.046875	-35.944935
3283.813477	-35.004795
3294.580078	-34.878426
3305.346680	-35.999866
3316.113281	-37.771824
3326.879883	-39.032700
3337.646484	-39.800697
3348.413086	-40.543484
3359.179688	-41.418110
3369.946289	-41.980774
3380.712891	-42.109615
3391.479492	-42.737171
3402.246094	-42.266243
3413.012695	-41.676563
3423.779297	-41.262871
3434.545898	-40.775703
3445.312500	-39.894985
3456.079102	-38.903465
3466.845703	-37.672665
3477.612305	-36.660160
3488.378906	-34.826160
3499.145508	-33.889503
3509.912109	-33.859737
3520.678711	-34.847401
3531.445312	-36.286732
3542.211914	-37.342163
3552.978516	-38.642151
3563.745117	-39.557995
3574.511719	-40.198551
3585.278320	-40.829525
3596.044922	-41.056377
3606.811523	-41.117367
3617.578125	-41.581993
3628.344727	-40.966080
3639.111328	-40.719559
3649.877930	-40.134541
3660.644531	-39.192814
3671.411133	-38.450577
3682.177734	-37.048779
3692.944336	-36.063477
3703.710938	-34.849892
3714.477539	-34.058372
3725.244141	-33.449280
3736.010742	-34.222488
3746.777344	-35.831825
3757.543945	-36.930069
3768.310547	-38.439404
3779.077148	-38.915512
3789.843750	-40.202576
3800.610352	-41.036171
3811.376953	-41.149799
3822.143555	-41.964340
3832.910156	-42.117188
3843.676758	-41.914776
3854.443359	-41.720638
3865.209961	-41.309593
3875.976562	-40.623306
3886.743164	-40.139828
3897.509766	-39.110603
3908.276367	-38.230698
3919.042969	-36.842098
3929.809570	-35.629314
3940.576172	-35.388290
3951.342773	-35.758026
3962.109375	-37.401886
3972.875977	-38.707119
3983.642578	-39.672035
3994.409180	-41.099133
4005.175781	-42.135029
4015.942383	-43.432041
4026.708984	-43.967743
4037.475586	-44.200191
4048.242188	-44.642174
4059.008789	-44.395523
4069.775391	-44.196514
4080.541992	-44.172169
4091.308594	-43.708828
4102.075195	-42.877590
4112.841797	-42.138317
4123.608398	-41.264076
4134.375000	-40.181034
4145.141602	-38.823933
4155.908203	-38.696346
4166.674805	-38.613823
4177.441406	-39.989986
4188.208008	-41.422527
4198.974609	-42.756981
4209.741211	-43.851635
4220.507812	-45.153549
4231.274414	-46.662022
4242.041016	-46.976688
4252.807617	-47.236145
4263.574219	-48.192287
4274.340820	-48.029060
4285.107422	-48.224216
4295.874023	-47.876884
4306.640625	-47.718327
4317.407227	-47.272499
4328.173828	-46.353764
4338.940430	-45.174358
4349.707031	-44.645878
4360.473633	-43.927391
4371.240234	-43.485275
4382.006836	-43.755264
4392.773438	-44.719505
4403.540039	-46.716190
4414.306641	-47.967865
4425.073242	-49.005062
4435.839844	-50.498043
4446.606445	-51.027607
4457.373047	-51.475388
4468.139648	-52.462185
4478.906250	-52.478062
4489.672852	-53.009415
4500.439453	-53.211170
4511.206055	-53.115887
4521.972656	-53.064949
4532.739258	-52.517387
4543.505859	-52.082527
4554.272461	-51.648724
4565.039062	-51.381084
4575.805664	-50.351315
4586.572266	-50.204742
4597.338867	-51.294720
4608.105469	-52.180538
4618.872070	-53.236980
4629.638672	-54.550411
4640.405273	-55.315342
4651.171875	-56.553650
4661.938477	-56.526859
4672.705078	-57.469051
4683.471680	-58.191120
4694.238281	-58.477261
4705.004883	-58.737072
4715.771484	-59.068550
4726.538086	-58.744003
4737.304688	-59.128601
4748.071289	-58.996929
4758.837891	-58.772346
4769.604492	-58.692814
4780.371094	-58.580517
4791.137695	-58.497169
4801.904297	-58.325844
4812.670898	-58.451443
4823.437500	-59.061863
4834.204102	-59.460976
4844.970703	-59.528111
4855.737305	-59.789978
4866.503906	-60.006218
4877.270508	-60.121639
4888.037109	-60.287468
4898.803711	-60.968800
4909.570312	-61.251663
4920.336914	-60.901829
4931.103516	-60.534248
4941.870117	-61.087006
4952.636719	-61.278038
4963.403320	-61.009171
4974.169922	-60.524509
4984.936523	-60.495014
4995.703125	-60.406559
5006.469727	-60.160999
5017.236328	-59.888927
5028.002930	-60.401920
5038.769531	-60.098324
5049.536133	-60.096336
5060.302734	-60.068962
5071.069336	-60.639584
5081.835938	-60.537327
5092.602539	-60.823357
5103.369141	-60.756325
5114.135742	-60.952560
5124.902344	-60.783596
5135.668945	-61.291126
5146.435547	-61.075745
5157.202148	-61.185814
5167.968750	-61.505421
5178.735352	-61.447895
5189.501953	-61.304581
5200.268555	-61.248386
5211.035156	-61.786144
5221.801758	-62.012390
5232.568359	-62.204765
5243.334961	-62.695610
5254.101562	-63.636837
5264.868164	-64.417259
5275.634766	-65.231110
5286.401367	-66.267014
5297.167969	-67.055016
5307.934570	-67.974457
5318.701172	-68.578896
5329.467773	-69.256676
5340.234375	-69.460754
5351.000977	-69.724358
5361.767578	-69.825111
5372.534180	-69.921196
5383.300781	-69.937569
5394.067383	-69.964256
5404.833984	-69.984283
5415.600586	-70.001915
5426.367188	-70.014931
5437.133789	-70.026512
5447.900391	-70.036827
5458.666992	-70.045044
5469.433594	-70.051453
5480.200195	-70.056412
5490.966797	-70.059891
5501.733398	-70.061996
