Frequency (Hz)	Level (dB)
10.766602	-26.114845
21.533203	-9.815015
32.299805	-23.459757
43.066406	-17.563713
53.833008	-25.040045
64.599609	-23.184692
75.366211	-23.622488
86.132812	-24.563450
96.899414	-25.660524
107.666016	-28.952452
118.432617	-28.696957
129.199219	-30.621828
139.965820	-30.235357
150.732422	-30.323122
161.499023	-30.582302
172.265625	-30.922371
183.032227	-30.509848
193.798828	-30.573586
204.565430	-30.143990
215.332031	-29.806570
226.098633	-29.580435
236.865234	-29.579679
247.631836	-29.120729
258.398438	-27.616852
269.165039	-26.876352
279.931641	-26.319815
290.698242	-28.011158
301.464844	-29.283417
312.231445	-29.724583
322.998047	-30.054350
333.764648	-30.612804
344.531250	-31.177143
355.297852	-31.394831
366.064453	-31.977776
376.831055	-31.991310
387.597656	-31.907681
398.364258	-31.963812
409.130859	-32.036163
419.897461	-32.162571
430.664062	-32.134243
441.430664	-32.247528
452.197266	-31.926931
462.963867	-32.356396
473.730469	-32.168240
484.497070	-31.973463
495.263672	-31.640909
506.030273	-31.491079
516.796875	-31.046787
527.563477	-30.275078
538.330078	-28.651020
549.096680	-29.505884
559.863281	-30.366226
570.629883	-31.459007
581.396484	-31.873783
592.163086	-32.504532
602.929688	-32.952385
613.696289	-33.875648
624.462891	-34.343231
635.229492	-34.074688
645.996094	-34.369419
656.762695	-34.672226
667.529297	-34.293793
678.295898	-35.057457
689.062500	-34.938526
699.829102	-35.189823
710.595703	-34.921803
721.362305	-34.678341
732.128906	-34.580975
742.895508	-34.690258
753.662109	-34.474926
764.428711	-34.221386
775.195312	-33.532352
785.961914	-32.880878
796.728516	-31.975601
807.495117	-31.581240
818.261719	-31.886797
829.028320	-32.195412
839.794922	-32.503925
850.561523	-33.203220
861.328125	-33.770035
872.094727	-34.388760
882.861328	-35.031372
893.627930	-35.353184
904.394531	-36.014706
915.161133	-36.932968
925.927734	-36.756977
936.694336	-37.333019
947.460938	-37.729530
958.227539	-37.124310
968.994141	-37.457081
979.760742	-37.283276
990.527344	-37.488228
1001.293945	-37.401390
1012.060547	-37.388237
1022.827148	-37.387314
1033.593750	-37.149544
1044.360352	-36.610741
1055.126953	-36.233475
1065.893555	-35.752270
1076.660156	-35.275822
1087.426758	-34.619358
1098.193359	-33.513409
1108.959961	-33.416882
1119.726562	-33.321476
1130.493164	-33.758049
1141.259766	-34.593250
1152.026367	-35.588509
1162.792969	-36.071331
1173.559570	-36.931778
1184.326172	-37.616192
1195.092773	-38.010551
1205.859375	-38.465897
1216.625977	-39.537670
1227.392578	-39.625378
1238.159180	-39.857971
1248.925781	-39.739925
1259.692383	-39.272400
1270.458984	-39.371639
1281.225586	-38.911144
1291.992188	-38.861713
1302.758789	-38.612885
1313.525391	-38.189552
1324.291992	-37.335064
1335.058594	-37.486763
1345.825195	-36.552357
1356.591797	-36.187496
1367.358398	-35.515045
1378.125000	-34.777557
1388.891602	-34.241436
1399.658203	-33.492924
1410.424805	-33.386639
1421.191406	-33.505859
1431.958008	-34.033939
1442.724609	-35.607964
1453.491211	-36.390671
1464.257812	-37.771976
1475.024414	-38.479908
1485.791016	-39.493454
1496.557617	-40.147629
1507.324219	-41.100330
1518.090820	-41.913998
1528.857422	-42.434998
1539.624023	-42.510887
1550.390625	-42.965748
1561.157227	-42.846889
1571.923828	-42.663128
1582.690430	-43.004745
1593.457031	-42.301208
1604.223633	-41.918709
1614.990234	-40.905106
1625.756836	-40.387268
1636.523438	-39.275253
1647.290039	-38.425610
1658.056641	-37.895504
1668.823242	-37.235596
1679.589844	-37.326523
1690.356445	-37.779915
1701.123047	-39.064209
1711.889648	-40.034229
1722.656250	-40.823456
1733.422852	-42.390873
1744.189453	-42.993198
1754.956055	-43.845612
1765.722656	-44.482063
1776.489258	-44.964066
1787.255859	-45.413818
1798.022461	-45.710587
1808.789062	-46.280891
1819.555664	-46.335194
1830.322266	-46.332756
1841.088867	-46.580364
1851.855469	-46.371426
1862.622070	-46.175297
1873.388672	-45.497314
1884.155273	-45.598713
1894.921875	-45.215961
1905.688477	-44.993969
1916.455078	-44.520363
1927.221680	-43.896317
1937.988281	-44.113411
1948.754883	-43.397034
1959.521484	-43.757469
1970.288086	-44.244804
1981.054688	-45.208416
1991.821289	-45.590233
2002.587891	-45.988586
2013.354492	-46.794163
2024.121094	-47.483112
2034.887695	-48.155552
2045.654297	-48.330296
2056.420898	-48.800404
2067.187500	-49.382069
2077.954102	-49.434669
2088.720703	-49.441505
2099.487305	-49.410877
2110.253906	-49.427990
2121.020508	-49.404682
2131.787109	-49.495853
2142.553711	-49.704346
2153.320312	-49.301109
2164.086914	-49.383873
2174.853516	-48.782883
2185.620117	-48.700775
2196.386719	-48.524117
2207.153320	-48.374046
2217.919922	-48.306740
2228.686523	-47.819504
2239.453125	-47.595543
2250.219727	-47.988384
2260.986328	-48.598297
2271.752930	-48.655712
2282.519531	-48.983150
2293.286133	-49.062771
2304.052734	-49.523487
2314.819336	-50.335781
2325.585938	-50.619717
2336.352539	-50.859909
2347.119141	-51.371311
2357.885742	-51.794693
2368.652344	-51.961079
2379.418945	-51.951244
2390.185547	-52.416420
2400.952148	-52.185745
2411.718750	-52.449577
2422.485352	-52.487381
2433.251953	-52.527809
2444.018555	-51.994652
2454.785156	-52.321419
2465.551758	-51.844231
2476.318359	-51.481915
2487.084961	-51.475086
2497.851562	-51.076366
2508.618164	-51.226349
2519.384766	-50.603718
2530.151367	-50.744095
2540.917969	-50.438110
2551.684570	-50.517872
2562.451172	-50.980576
2573.217773	-50.938091
2583.984375	-51.282780
2594.750977	-51.874207
2605.517578	-52.365891
2616.284180	-52.445835
2627.050781	-52.956333
2637.817383	-53.108330
2648.583984	-53.491508
2659.350586	-53.331970
2670.117188	-53.250698
2680.883789	-54.118176
2691.650391	-53.684982
2702.416992	-53.644966
2713.183594	-54.013432
2723.950195	-53.746403
2734.716797	-53.720749
2745.483398	-53.110332
2756.250000	-53.018471
2767.016602	-52.680943
2777.783203	-52.584435
2788.549805	-51.971622
2799.316406	-51.629059
2810.083008	-51.019272
2820.849609	-50.612022
2831.616211	-50.232895
2842.382812	-50.407280
2853.149414	-50.399025
2863.916016	-51.289440
2874.682617	-51.404835
2885.449219	-51.929447
2896.215820	-52.552975
2906.982422	-52.937592
2917.749023	-53.430103
2928.515625	-54.129162
2939.282227	-54.061153
2950.048828	-54.620224
2960.815430	-54.932724
2971.582031	-55.025475
2982.348633	-55.034344
2993.115234	-54.937767
3003.881836	-55.125889
3014.648438	-54.934845
3025.415039	-54.770378
3036.181641	-54.338623
3046.948242	-53.765594
3057.714844	-53.480152
3068.481445	-52.892860
3079.248047	-52.271076
3090.014648	-51.729488
3100.781250	-51.035862
3111.547852	-50.367069
3122.314453	-50.665485
3133.081055	-50.955715
3143.847656	-51.696468
3154.614258	-52.328777
3165.380859	-52.711910
3176.147461	-53.530392
3186.914062	-53.936096
3197.680664	-54.455276
3208.447266	-55.499531
3219.213867	-55.631821
3229.980469	-56.036953
3240.747070	-56.392090
3251.513672	-56.028252
3262.280273	-56.297859
3273.046875	-56.144691
3283.813477	-56.356541
3294.580078	-56.136761
3305.346680	-55.385418
3316.113281	-55.603210
3326.879883	-55.095428
3337.646484	-54.343296
3348.413086	-53.865887
3359.179688	-52.997307
3369.946289	-52.429451
3380.712891	-51.218887
3391.479492	-50.859882
3402.246094	-50.607433
3413.012695	-50.807953
3423.779297	-51.572708
3434.545898	-52.501148
3445.312500	-53.223267
3456.079102	-54.234020
3466.845703	-54.852970
3477.612305	-55.339436
3488.378906	-55.945072
3499.145508	-56.262039
3509.912109	-56.763329
3520.678711	-56.869007
3531.445312	-56.772617
3542.211914	-56.945404
3552.978516	-57.104900
3563.745117	-56.871025
3574.511719	-56.848518
3585.278320	-56.382378
3596.044922	-55.944309
3606.811523	-55.231972
3617.578125	-55.135872
3628.344727	-54.052292
3639.111328	-53.628624
3649.877930	-52.141361
3660.644531	-51.121220
3671.411133	-50.971912
3682.177734	-50.511112
3692.944336	-51.394459
3703.710938	-52.435543
3714.477539	-53.051945
3725.244141	-53.619114
3736.010742	-54.836571
3746.777344	-55.416351
3757.543945	-56.207096
3768.310547	-56.336472
3779.077148	-57.332657
3789.843750	-57.351269
3800.610352	-57.730049
3811.376953	-57.528065
3822.143555	-58.359413
3832.910156	-58.156620
3843.676758	-57.802883
3854.443359	-57.732807
3865.209961	-57.374023
3875.976562	-56.866001
3886.743164	-56.104755
3897.509766	-55.570950
3908.276367	-55.002037
3919.042969	-54.200150
3929.809570	-53.102539
3940.576172	-52.340237
3951.342773	-51.369198
3962.109375	-51.634087
3972.875977	-52.556480
3983.642578	-53.320293
3994.409180	-54.605465
4005.175781	-55.188004
4015.942383	-56.400013
4026.708984	-56.731735
4037.475586	-57.541431
4048.242188	-58.080166
4059.008789	-58.652050
4069.775391	-58.743240
4080.541992	-59.161377
4091.308594	-59.211090
4102.075195	-59.074265
4112.841797	-59.494179
4123.608398	-58.990593
4134.375000	-59.125713
4145.141602	-58.753311
4155.908203	-58.450836
4166.674805	-57.980606
4177.441406	-57.632111
4188.208008	-56.352806
4198.974609	-55.606602
4209.741211	-54.943527
4220.507812	-54.053036
4231.274414	-53.458485
4242.041016	-53.726929
4252.807617	-54.536324
4263.574219	-55.582691
4274.340820	-56.494648
4285.107422	-57.646690
4295.874023	-58.084854
4306.640625	-59.370724
4317.407227	-59.574905
4328.173828	-59.951294
4338.940430	-60.575008
4349.707031	-61.086143
4360.473633	-61.004997
4371.240234	-61.258381
4382.006836	-61.185345
4392.773438	-61.319225
4403.540039	-61.318138
4414.306641	-61.378189
4425.073242	-61.336788
4435.839844	-61.095875
4446.606445	-60.878975
4457.373047	-60.292091
4468.139648	-59.392620
4478.906250	-58.817341
4489.672852	-58.486603
4500.439453	-57.309605
4511.206055	-57.363392
4521.972656	-57.501022
4532.739258	-58.032894
4543.505859	-59.042469
4554.272461	-59.951385
4565.039062	-60.653709
4575.805664	-61.431164
4586.572266	-61.411694
4597.338867	-62.004173
4608.105469	-62.453449
4618.872070	-62.266968
4629.638672	-62.810368
4640.405273	-62.807953
4651.171875	-62.932533
4661.938477	-63.333771
4672.705078	-63.513634
4683.471680	-63.326771
4694.238281	-62.953144
4705.004883	-63.257908
4715.771484	-62.895508
4726.538086	-62.598286
4737.304688	-62.405037
4748.071289	-61.956703
4758.837891	-61.442493
4769.604492	-60.777508
4780.371094	-60.118160
4791.137695	-59.771168
4801.904297	-60.301628
4812.670898	-60.975304
4823.437500	-61.729759
4834.204102	-62.114803
4844.970703	-62.882935
4855.737305	-63.335949
4866.503906	-63.621788
4877.270508	-63.378571
4888.037109	-63.985954
4898.803711	-63.909786
4909.570312	-64.020226
4920.336914	-64.026413
4931.103516	-64.033897
4941.870117	-63.922638
4952.636719	-64.111076
4963.403320	-63.975735
4974.169922	-64.433159
4984.936523	-64.391205
4995.703125	-64.142891
5006.469727	-63.737999
5017.236328	-63.276047
5028.002930	-62.852081
5038.769531	-62.326916
5049.536133	-61.532921
5060.302734	-60.768097
5071.069336	-60.236839
5081.835938	-60.793613
5092.602539	-61.524857
5103.369141	-62.477707
5114.135742	-62.876690
5124.902344	-63.325092
5135.668945	-63.877705
5146.435547	-63.737816
5157.202148	-64.291748
5167.968750	-64.662544
5178.735352	-65.195587
5189.501953	-64.916595
5200.268555	-65.465759
5211.035156	-65.965393
5221.801758	-65.902756
5232.568359	-66.522072
5243.334961	-66.970634
5254.101562	-66.865898
5264.868164	-67.600075
5275.634766	-67.770958
5286.401367	-68.041313
5297.167969	-68.199585
5307.934570	-68.394676
5318.701172	-68.560410
5329.467773	-68.670494
5340.234375	-68.814705
5351.000977	-68.878571
5361.767578	-68.978287
5372.534180	-68.986420
5383.300781	-68.970192
5394.067383	-68.989410
5404.833984	-68.988976
5415.600586	-68.990959
5426.367188	-68.993370
5437.133789	-68.995003
5447.900391	-68.996017
5458.666992	-68.997040
5469.433594	-68.997833
5480.200195	-68.998451
5490.966797	-68.998901
5501.733398	-68.999153
